Data from HDX013801__3__12-12-44-743.txt Node

Date: Tue Sep 20 12:12:44 CEST 2022
User: Mapthz02
Spectrometer: HDX01380
Trigger mode: 0
Integration Time (sec): 4,000000E-2
Scans to average: 1
Nonlinearity correction enabled: false
Boxcar width: 0
Storing dark spectrum: false
XAxis mode: Wavelengths
Number of Pixels in Spectrum: 2068
>>>>>Begin Spectral Data<<<<<
193,877	1950
194,251	1257
194,625	1345
194,999	1328
195,373	1393
195,747	1417
196,121	1413
196,495	1415
196,869	1401
197,242	1384
197,616	1402
197,989	1400
198,362	1409
198,736	1398
199,109	1403
199,482	1407
199,855	1394
200,228	1406
200,601	1392
200,973	1399
201,346	1396
201,719	1402
202,091	1399
202,463	1409
202,836	1387
203,208	1401
203,58	1405
203,952	1401
204,324	1398
204,696	1390
205,068	1415
205,439	1397
205,811	1400
206,182	1424
206,554	1418
206,925	1392
207,296	1422
207,668	1407
208,039	1405
208,41	1409
208,781	1398
209,151	1409
209,522	1406
209,893	1401
210,263	1394
210,634	1429
211,004	1397
211,375	1404
211,745	1419
212,115	1398
212,485	1415
212,855	1408
213,225	1426
213,595	1389
213,964	1424
214,334	1381
214,703	1426
215,073	1410
215,442	1411
215,811	1413
216,181	1401
216,55	1405
216,919	1394
217,288	1412
217,657	1426
218,025	1423
218,394	1410
218,763	1399
219,131	1427
219,499	1398
219,868	1385
220,236	1407
220,604	1410
220,972	1416
221,34	1399
221,708	1409
222,076	1414
222,444	1406
222,811	1388
223,179	1392
223,546	1416
223,914	1404
224,281	1415
224,648	1408
225,015	1400
225,382	1400
225,749	1408
226,116	1398
226,483	1412
226,85	1420
227,216	1399
227,583	1396
227,949	1407
228,315	1405
228,682	1414
229,048	1404
229,414	1399
229,78	1416
230,146	1402
230,512	1432
230,877	1403
231,243	1395
231,609	1422
231,974	1413
232,34	1417
232,705	1401
233,07	1397
233,435	1409
233,8	1403
234,165	1388
234,53	1397
234,895	1406
235,26	1394
235,624	1402
235,989	1392
236,353	1401
236,718	1402
237,082	1402
237,446	1394
237,81	1388
238,175	1394
238,538	1407
238,902	1403
239,266	1399
239,63	1426
239,993	1422
240,357	1398
240,72	1411
241,084	1393
241,447	1410
241,81	1372
242,173	1408
242,536	1414
242,899	1410
243,262	1426
243,625	1390
243,988	1393
244,35	1406
244,713	1402
245,075	1412
245,438	1416
245,8	1412
246,162	1411
246,524	1412
246,886	1393
247,248	1407
247,61	1392
247,972	1416
248,333	1407
248,695	1410
249,056	1398
249,418	1413
249,779	1399
250,14	1411
250,502	1400
250,863	1394
251,224	1395
251,585	1399
251,945	1410
252,306	1422
252,667	1405
253,027	1434
253,388	1402
253,748	1421
254,109	1415
254,469	1406
254,829	1394
255,189	1410
255,549	1400
255,909	1414
256,269	1383
256,628	1417
256,988	1428
257,348	1394
257,707	1428
258,066	1417
258,426	1403
258,785	1405
259,144	1413
259,503	1407
259,862	1401
260,221	1397
260,58	1427
260,939	1401
261,297	1412
261,656	1406
262,014	1406
262,373	1407
262,731	1415
263,089	1407
263,447	1404
263,805	1405
264,163	1419
264,521	1403
264,879	1402
265,237	1424
265,594	1413
265,952	1409
266,309	1403
266,667	1418
267,024	1393
267,381	1407
267,738	1388
268,095	1406
268,452	1410
268,809	1410
269,166	1416
269,523	1411
269,879	1396
270,236	1417
270,592	1398
270,949	1414
271,305	1413
271,661	1395
272,017	1413
272,373	1397
272,729	1411
273,085	1386
273,441	1409
273,797	1408
274,152	1401
274,508	1402
274,863	1412
275,219	1408
275,574	1393
275,929	1390
276,284	1402
276,639	1401
276,994	1432
277,349	1403
277,704	1408
278,059	1426
278,413	1416
278,768	1395
279,122	1412
279,477	1409
279,831	1387
280,185	1413
280,539	1409
280,893	1403
281,247	1398
281,601	1392
281,955	1412
282,309	1416
282,662	1451
283,016	1412
283,369	1434
283,723	1409
284,076	1411
284,429	1394
284,782	1402
285,135	1422
285,488	1392
285,841	1414
286,194	1415
286,547	1402
286,899	1418
287,252	1398
287,605	1404
287,957	1414
288,309	1413
288,661	1411
289,014	1383
289,366	1421
289,718	1426
290,07	1413
290,421	1417
290,773	1415
291,125	1406
291,476	1415
291,828	1430
292,179	1412
292,53	1417
292,882	1419
293,233	1420
293,584	1411
293,935	1410
294,286	1411
294,637	1443
294,987	1424
295,338	1427
295,689	1417
296,039	1420
296,39	1427
296,74	1428
297,09	1400
297,44	1422
297,79	1406
298,14	1443
298,49	1410
298,84	1434
299,19	1435
299,54	1439
299,889	1432
300,239	1441
300,588	1448
300,937	1466
301,287	1445
301,636	1445
301,985	1434
302,334	1469
302,683	1414
303,032	1461
303,381	1430
303,729	1445
304,078	1467
304,426	1460
304,775	1442
305,123	1471
305,472	1461
305,82	1478
306,168	1458
306,516	1456
306,864	1471
307,212	1480
307,56	1553
307,907	1661
308,255	1707
308,602	1693
308,95	1658
309,297	1636
309,645	1708
309,992	1848
310,339	2119
310,686	2395
311,033	2333
311,38	2015
311,727	1875
312,073	1849
312,42	1866
312,767	1878
313,113	1873
313,46	1824
313,806	1747
314,152	1717
314,498	1746
314,844	1735
315,19	1870
315,536	2069
315,882	2245
316,228	2298
316,574	2145
316,919	2036
317,265	1953
317,61	2025
317,955	2153
318,301	2380
318,646	2607
318,991	2582
319,336	2379
319,681	2189
320,026	2093
320,371	2093
320,715	2141
321,06	2269
321,405	2262
321,749	2166
322,093	2050
322,438	1891
322,782	1789
323,126	1800
323,47	1805
323,814	1830
324,158	1906
324,502	1961
324,846	2006
325,189	2014
325,533	1979
325,876	1935
326,22	1975
326,563	2016
326,906	2074
327,25	2155
327,593	2188
327,936	2138
328,279	2131
328,621	2071
328,964	2081
329,307	2146
329,649	2226
329,992	2271
330,334	2231
330,677	2071
331,019	1986
331,361	1866
331,703	1877
332,045	1917
332,387	2049
332,729	2219
333,071	2398
333,413	2271
333,755	2043
334,096	1779
334,438	1690
334,779	1610
335,12	1554
335,462	1589
335,803	1569
336,144	1587
336,485	1621
336,826	1667
337,167	1613
337,507	1595
337,848	1549
338,189	1524
338,529	1505
338,87	1478
339,21	1496
339,55	1506
339,89	1481
340,231	1515
340,571	1528
340,911	1551
341,25	1587
341,59	1579
341,93	1569
342,27	1547
342,609	1528
342,949	1530
343,288	1528
343,627	1554
343,967	1583
344,306	1664
344,645	1701
344,984	1675
345,323	1612
345,662	1567
346	1537
346,339	1508
346,678	1469
347,016	1456
347,355	1472
347,693	1481
348,031	1491
348,37	1505
348,708	1552
349,046	1621
349,384	1718
349,722	1739
350,06	1627
350,397	1608
350,735	1539
351,073	1513
351,41	1492
351,747	1493
352,085	1506
352,422	1484
352,759	1506
353,096	1552
353,433	1586
353,77	1660
354,107	1834
354,444	2067
354,781	2306
355,117	2318
355,454	2179
355,79	2031
356,127	1932
356,463	1837
356,799	1831
357,135	1873
357,471	1894
357,807	2064
358,143	2183
358,479	2274
358,815	2329
359,151	2295
359,486	2235
359,822	2117
360,157	2055
360,493	2075
360,828	2046
361,163	2108
361,498	2175
361,833	2307
362,168	2473
362,503	2683
362,838	2844
363,173	2963
363,507	2853
363,842	2658
364,176	2515
364,511	2442
364,845	2349
365,179	2363
365,514	2293
365,848	2335
366,182	2435
366,516	2568
366,85	2713
367,183	2910
367,517	3175
367,851	3394
368,184	3620
368,518	3667
368,851	3688
369,184	3649
369,518	3559
369,851	3639
370,184	3689
370,517	3734
370,85	3997
371,183	4283
371,516	4720
371,848	5513
372,181	6590
372,513	8072
372,846	10354
373,178	13400
373,511	17588
373,843	22629
374,175	27833
374,507	32308
374,839	35094
375,171	34139
375,503	29530
375,835	21917
376,166	14534
376,498	9141
376,829	7027
377,161	7125
377,492	9215
377,823	12316
378,155	15451
378,486	17970
378,817	18799
379,148	18161
379,479	16627
379,81	14565
380,14	12591
380,471	11179
380,802	9981
381,132	9262
381,463	8975
381,793	8884
382,123	8927
382,453	9015
382,784	9313
383,114	9637
383,444	9884
383,773	9853
384,103	9874
384,433	9890
384,763	9612
385,092	9491
385,422	9396
385,751	9375
386,081	9379
386,41	9240
386,739	9117
387,068	8783
387,397	8303
387,726	7760
388,055	7259
388,384	6929
388,713	6646
389,041	6599
389,37	6819
389,698	7056
390,027	7437
390,355	7776
390,683	7936
391,012	8108
391,34	8293
391,668	8289
391,996	8111
392,324	8130
392,651	7866
392,979	8012
393,307	8000
393,634	8286
393,962	8738
394,289	9436
394,617	10286
394,944	10872
395,271	11295
395,598	11245
395,925	11294
396,252	11155
396,579	11032
396,906	10921
397,233	10728
397,559	10669
397,886	10731
398,212	10525
398,539	10522
398,865	10631
399,191	10751
399,518	10750
399,844	10827
400,17	11054
400,496	10993
400,822	11270
401,147	11223
401,473	11180
401,799	11067
402,124	10906
402,45	10689
402,775	10360
403,101	10155
403,426	9905
403,751	9642
404,076	9402
404,401	9315
404,726	9241
405,051	9307
405,376	9402
405,701	9509
406,025	9688
406,35	9823
406,674	9848
406,999	10005
407,323	10127
407,647	10220
407,972	10108
408,296	10181
408,62	10099
408,944	9964
409,268	9917
409,592	9802
409,915	9767
410,239	9761
410,563	9837
410,886	10007
411,21	10163
411,533	10263
411,856	10395
412,179	10595
412,503	10693
412,826	10550
413,149	10519
413,472	10358
413,794	10150
414,117	9980
414,44	9940
414,762	9782
415,085	9834
415,407	9770
415,73	9824
416,052	9787
416,374	9919
416,697	9974
417,019	10219
417,341	10200
417,663	10186
417,984	10142
418,306	9950
418,628	9990
418,95	9995
419,271	10098
419,593	10120
419,914	10072
420,235	9774
420,557	9722
420,878	9598
421,199	9415
421,52	9401
421,841	9359
422,162	9522
422,482	9441
422,803	9448
423,124	9395
423,444	9353
423,765	9328
424,085	9191
424,406	9083
424,726	8837
425,046	8925
425,366	8969
425,686	8929
426,006	8919
426,326	8995
426,646	9007
426,966	9125
427,285	9238
427,605	9413
427,924	9463
428,244	9508
428,563	9448
428,883	9502
429,202	9452
429,521	9342
429,84	9238
430,159	9100
430,478	8982
430,797	9013
431,115	8982
431,434	9025
431,753	9058
432,071	9188
432,39	9304
432,708	9470
433,026	9482
433,345	9574
433,663	9530
433,981	9688
434,299	9637
434,617	9522
434,935	9473
435,253	9409
435,57	9233
435,888	8999
436,206	8979
436,523	8974
436,84	8980
437,158	9036
437,475	9151
437,792	9292
438,109	9531
438,426	9801
438,743	9958
439,06	10013
439,377	10124
439,694	9966
440,011	9932
440,327	9910
440,644	9792
440,96	9767
441,277	9505
441,593	9413
441,909	9295
442,225	9055
442,541	8965
442,857	8903
443,173	8880
443,489	8917
443,805	9020
444,121	9005
444,436	9178
444,752	9360
445,067	9582
445,383	9661
445,698	9750
446,013	9751
446,329	9695
446,644	9620
446,959	9595
447,274	9436
447,589	9221
447,903	9049
448,218	8842
448,533	8711
448,847	8580
449,162	8810
449,476	8824
449,791	9376
450,105	10787
450,419	11472
450,733	10532
451,048	9821
451,362	9709
451,675	9732
451,989	10193
452,303	10884
452,617	11527
452,93	11029
453,244	10304
453,558	9929
453,871	9711
454,184	9711
454,498	9456
454,811	9348
455,124	9169
455,437	9142
455,75	8918
456,063	8919
456,376	8956
456,688	9029
457,001	9059
457,314	9333
457,626	9621
457,939	9775
458,251	10012
458,563	10188
458,876	10262
459,188	10202
459,5	9922
459,812	9851
460,124	9875
460,436	9793
460,748	9793
461,059	9713
461,371	9797
461,683	9728
461,994	9870
462,306	10082
462,617	10387
462,928	10635
463,239	10607
463,551	10609
463,862	10346
464,173	10164
464,484	10027
464,794	9963
465,105	9886
465,416	9865
465,727	9900
466,037	10124
466,348	10334
466,658	10648
466,968	11313
467,279	12611
467,589	13694
467,899	14187
468,209	13744
468,519	12863
468,829	12152
469,139	11251
469,448	10863
469,758	10366
470,068	10176
470,377	10028
470,687	9767
470,996	9661
471,306	9415
471,615	9244
471,924	9269
472,233	9288
472,542	9281
472,851	9706
473,16	10737
473,469	12408
473,778	12870
474,086	11378
474,395	10210
474,703	9604
475,012	9254
475,32	8868
475,629	8808
475,937	8605
476,245	8443
476,553	8247
476,861	8138
477,169	8096
477,477	7895
477,785	7825
478,092	8025
478,4	8066
478,708	8073
479,015	8211
479,323	8290
479,63	8491
479,937	8716
480,245	8887
480,552	9197
480,859	9742
481,166	10297
481,473	10357
481,78	10056
482,086	9723
482,393	9477
482,7	9218
483,006	9402
483,313	9391
483,619	9275
483,926	8929
484,232	8802
484,538	8614
484,844	8455
485,15	8490
485,456	8397
485,762	8351
486,068	8256
486,374	8317
486,68	8213
486,985	8348
487,291	8391
487,596	8490
487,902	8657
488,207	8623
488,512	8716
488,818	8702
489,123	8778
489,428	8795
489,733	8658
490,038	8615
490,343	8470
490,648	8454
490,952	8544
491,257	8495
491,561	8793
491,866	9334
492,17	9568
492,475	9420
492,779	9244
493,083	9240
493,387	9030
493,691	8643
493,995	8547
494,299	8249
494,603	8265
494,907	8317
495,211	8195
495,514	8144
495,818	8068
496,122	8077
496,425	8110
496,728	8061
497,032	8045
497,335	8052
497,638	7841
497,941	7795
498,244	7732
498,547	7664
498,85	7620
499,153	7515
499,455	7423
499,758	7309
500,061	7273
500,363	7296
500,666	7248
500,968	7224
501,27	7180
501,572	7298
501,875	7334
502,177	7311
502,479	7390
502,781	7490
503,083	7632
503,384	7582
503,686	7761
503,988	7780
504,289	7827
504,591	7715
504,892	7686
505,194	7717
505,495	7638
505,796	7552
506,097	7433
506,398	7370
506,699	7304
507	7207
507,301	7083
507,602	6981
507,903	6937
508,204	6937
508,504	6825
508,805	6765
509,105	6778
509,406	6768
509,706	6701
510,006	6784
510,306	6882
510,606	6856
510,906	7004
511,206	7030
511,506	7203
511,806	7362
512,106	7353
512,406	7525
512,705	7596
513,005	7710
513,304	7792
513,604	7853
513,903	7829
514,202	7744
514,501	7763
514,801	7595
515,1	7619
515,399	7423
515,698	7393
515,996	7275
516,295	7158
516,594	7126
516,893	7127
517,191	6994
517,49	7008
517,788	6925
518,086	6952
518,385	6922
518,683	6993
518,981	6891
519,279	7043
519,577	7075
519,875	7114
520,173	7232
520,471	7097
520,768	7111
521,066	7117
521,364	7098
521,661	7043
521,959	7029
522,256	6963
522,553	6743
522,851	6725
523,148	6556
523,445	6353
523,742	6105
524,039	5998
524,336	5757
524,633	5613
524,929	5364
525,226	5078
525,523	4984
525,819	4831
526,116	4618
526,412	4518
526,709	4448
527,005	4402
527,301	4268
527,597	4210
527,893	4169
528,189	4164
528,485	4126
528,781	4202
529,077	4184
529,372	4277
529,668	4290
529,964	4321
530,259	4348
530,555	4508
530,85	4521
531,145	4513
531,441	4599
531,736	4629
532,031	4673
532,326	4744
532,621	4747
532,916	4798
533,211	4786
533,505	4785
533,8	4692
534,095	4806
534,389	4773
534,684	4777
534,978	4745
535,272	4704
535,567	4752
535,861	4720
536,155	4776
536,449	4726
536,743	4805
537,037	4840
537,331	4838
537,625	4974
537,918	4936
538,212	5115
538,506	5123
538,799	5239
539,093	5314
539,386	5464
539,679	5421
539,972	5517
540,266	5595
540,559	5663
540,852	5767
541,145	5723
541,438	5750
541,73	5721
542,023	5708
542,316	5697
542,609	5670
542,901	5664
543,194	5659
543,486	5563
543,778	5546
544,071	5558
544,363	5541
544,655	5483
544,947	5522
545,239	5474
545,531	5546
545,823	5652
546,115	5723
546,406	5886
546,698	6067
546,99	6246
547,281	6471
547,573	6656
547,864	6971
548,155	7304
548,447	7507
548,738	8022
549,029	8288
549,32	8537
549,611	8987
549,902	9389
550,193	9642
550,484	9922
550,774	10198
551,065	10551
551,356	10745
551,646	10928
551,937	11191
552,227	11273
552,517	11517
552,808	11548
553,098	11566
553,388	11540
553,678	11555
553,968	11424
554,258	11311
554,548	11079
554,837	10994
555,127	10855
555,417	10510
555,706	10294
555,996	9985
556,285	9598
556,575	9576
556,864	9189
557,153	8982
557,442	8742
557,731	8430
558,02	8198
558,309	7867
558,598	7723
558,887	7503
559,176	7289
559,465	7127
559,753	6959
560,042	6824
560,33	6721
560,619	6670
560,907	6622
561,195	6515
561,483	6436
561,772	6452
562,06	6327
562,348	6306
562,636	6328
562,924	6247
563,211	6227
563,499	6179
563,787	6135
564,074	6149
564,362	6088
564,65	5943
564,937	5893
565,224	5825
565,512	5818
565,799	5671
566,086	5627
566,373	5477
566,66	5400
566,947	5259
567,234	5142
567,521	5077
567,807	4947
568,094	4900
568,381	4745
568,667	4660
568,954	4532
569,24	4506
569,527	4418
569,813	4377
570,099	4329
570,385	4264
570,671	4225
570,957	4285
571,243	4201
571,529	4238
571,815	4223
572,101	4193
572,386	4282
572,672	4281
572,957	4261
573,243	4284
573,528	4329
573,814	4325
574,099	4416
574,384	4460
574,669	4462
574,954	4414
575,239	4522
575,524	4512
575,809	4436
576,094	4421
576,379	4483
576,664	4427
576,948	4433
577,233	4390
577,517	4322
577,802	4257
578,086	4291
578,37	4169
578,655	4136
578,939	4069
579,223	4150
579,507	4053
579,791	4021
580,075	3948
580,359	3932
580,642	3809
580,926	3861
581,21	3852
581,493	3855
581,777	3819
582,06	3768
582,343	3874
582,627	3817
582,91	3795
583,193	3815
583,476	3853
583,759	3850
584,042	3879
584,325	3923
584,608	3933
584,891	4062
585,174	3922
585,456	4010
585,739	3996
586,021	4023
586,304	3969
586,586	4061
586,868	4005
587,151	4086
587,433	3997
587,715	3956
587,997	4021
588,279	3952
588,561	3945
588,843	3876
589,125	3829
589,406	3792
589,688	3763
589,97	3702
590,251	3734
590,533	3678
590,814	3660
591,095	3580
591,377	3598
591,658	3495
591,939	3464
592,22	3426
592,501	3436
592,782	3380
593,063	3374
593,344	3331
593,624	3344
593,905	3300
594,186	3307
594,466	3313
594,747	3240
595,027	3297
595,307	3336
595,588	3282
595,868	3244
596,148	3230
596,428	3303
596,708	3227
596,988	3237
597,268	3248
597,548	3314
597,828	3286
598,107	3217
598,387	3200
598,667	3255
598,946	3216
599,226	3202
599,505	3157
599,784	3179
600,064	3172
600,343	3137
600,622	3094
600,901	3124
601,18	3058
601,459	3078
601,738	2995
602,017	2955
602,295	2980
602,574	2978
602,853	2958
603,131	2972
603,41	2932
603,688	2911
603,966	2960
604,245	2873
604,523	2864
604,801	2878
605,079	2884
605,357	2883
605,635	2898
605,913	2918
606,191	2881
606,469	2929
606,746	2983
607,024	2903
607,302	2931
607,579	2946
607,856	2956
608,134	2949
608,411	2891
608,688	2965
608,966	2983
609,243	2984
609,52	2994
609,797	3013
610,074	3012
610,351	3046
610,627	3086
610,904	3011
611,181	3022
611,457	3025
611,734	3008
612,011	2986
612,287	3022
612,563	2939
612,84	3012
613,116	2926
613,392	2906
613,668	2891
613,944	2866
614,22	2859
614,496	2877
614,772	2803
615,048	2767
615,323	2813
615,599	2790
615,875	2754
616,15	2750
616,426	2740
616,701	2748
616,976	2715
617,252	2738
617,527	2704
617,802	2684
618,077	2693
618,352	2695
618,627	2693
618,902	2677
619,177	2713
619,452	2733
619,726	2746
620,001	2714
620,275	2784
620,55	2716
620,824	2747
621,099	2770
621,373	2749
621,647	2806
621,922	2811
622,196	2752
622,47	2774
622,744	2749
623,018	2759
623,292	2713
623,565	2783
623,839	2711
624,113	2735
624,387	2741
624,66	2749
624,934	2730
625,207	2708
625,48	2643
625,754	2638
626,027	2601
626,3	2584
626,573	2635
626,846	2578
627,119	2599
627,392	2544
627,665	2550
627,938	2477
628,211	2495
628,483	2517
628,756	2530
629,029	2466
629,301	2443
629,574	2427
629,846	2433
630,118	2376
630,39	2429
630,663	2441
630,935	2395
631,207	2401
631,479	2427
631,751	2420
632,023	2430
632,294	2416
632,566	2393
632,838	2400
633,109	2426
633,381	2455
633,652	2429
633,924	2430
634,195	2422
634,467	2463
634,738	2473
635,009	2454
635,28	2489
635,551	2474
635,822	2452
636,093	2477
636,364	2515
636,635	2448
636,906	2489
637,176	2483
637,447	2514
637,717	2523
637,988	2505
638,258	2517
638,529	2507
638,799	2513
639,069	2474
639,339	2487
639,61	2410
639,88	2445
640,15	2422
640,42	2431
640,689	2400
640,959	2345
641,229	2348
641,499	2346
641,768	2334
642,038	2299
642,307	2264
642,577	2283
642,846	2241
643,115	2250
643,385	2268
643,654	2245
643,923	2192
644,192	2209
644,461	2198
644,73	2200
644,999	2163
645,268	2153
645,536	2148
645,805	2130
646,074	2153
646,342	2111
646,611	2097
646,879	2116
647,148	2100
647,416	2073
647,684	2047
647,953	2096
648,221	2034
648,489	2030
648,757	2033
649,025	2005
649,293	1983
649,56	1958
649,828	1945
650,096	1904
650,364	1882
650,631	1881
650,899	1822
651,166	1801
651,434	1771
651,701	1768
651,968	1750
652,235	1705
652,503	1698
652,77	1672
653,037	1692
653,304	1639
653,571	1620
653,837	1636
654,104	1645
654,371	1619
654,638	1609
654,904	1610
655,171	1601
655,437	1584
655,704	1602
655,97	1589
656,236	1594
656,503	1633
656,769	1625
657,035	1612
657,301	1619
657,567	1605
657,833	1637
658,099	1632
658,365	1630
658,63	1660
658,896	1656
659,162	1667
659,427	1693
659,693	1674
659,958	1687
660,224	1706
660,489	1668
660,754	1712
661,019	1726
661,285	1706
661,55	1727
661,815	1711
662,08	1725
662,345	1716
662,609	1713
662,874	1734
663,139	1744
663,404	1745
663,668	1747
663,933	1736
664,197	1742
664,462	1735
664,726	1768
664,99	1741
665,255	1760
665,519	1750
665,783	1749
666,047	1782
666,311	1744
666,575	1756
666,839	1738
667,103	1757
667,366	1762
667,63	1757
667,894	1734
668,157	1743
668,421	1747
668,684	1759
668,948	1757
669,211	1757
669,474	1765
669,737	1770
670,001	1745
670,264	1773
670,527	1732
670,79	1761
671,053	1773
671,315	1786
671,578	1739
671,841	1742
672,104	1768
672,366	1750
672,629	1757
672,891	1746
673,154	1722
673,416	1766
673,678	1766
673,941	1778
674,203	1775
674,465	1777
674,727	1764
674,989	1741
675,251	1771
675,513	1748
675,775	1763
676,037	1745
676,298	1759
676,56	1779
676,822	1758
677,083	1770
677,345	1755
677,606	1769
677,867	1753
678,129	1768
678,39	1750
678,651	1768
678,912	1748
679,173	1752
679,434	1735
679,695	1761
679,956	1762
680,217	1770
680,478	1742
680,738	1771
680,999	1762
681,26	1785
681,52	1742
681,781	1767
682,041	1761
682,301	1795
682,562	1773
682,822	1803
683,082	1795
683,342	1810
683,602	1816
683,862	1824
684,122	1789
684,382	1811
684,642	1789
684,902	1779
685,161	1770
685,421	1784
685,681	1746
685,94	1751
686,2	1758
686,459	1742
686,718	1777
686,978	1751
687,237	1741
687,496	1722
687,755	1731
688,014	1752
688,273	1729
688,532	1777
688,791	1779
689,05	1769
689,309	1768
689,567	1760
689,826	1754
690,085	1765
690,343	1732
690,601	1757
690,86	1745
691,118	1730
691,377	1750
691,635	1715
691,893	1726
692,151	1704
692,409	1705
692,667	1685
692,925	1693
693,183	1669
693,441	1702
693,699	1695
693,956	1684
694,214	1684
694,471	1702
694,729	1682
694,986	1687
695,244	1666
695,501	1692
695,759	1682
696,016	1666
696,273	1677
696,53	1681
696,787	1676
697,044	1658
697,301	1674
697,558	1639
697,815	1647
698,072	1671
698,328	1649
698,585	1656
698,842	1636
699,098	1648
699,355	1646
699,611	1650
699,867	1630
700,124	1670
700,38	1618
700,636	1625
700,892	1612
701,148	1628
701,404	1616
701,66	1627
701,916	1599
702,172	1596
702,428	1592
702,684	1592
702,939	1594
703,195	1584
703,45	1589
703,706	1592
703,961	1592
704,217	1565
704,472	1582
704,727	1569
704,982	1571
705,238	1589
705,493	1559
705,748	1581
706,003	1559
706,258	1578
706,513	1595
706,767	1565
707,022	1574
707,277	1572
707,531	1552
707,786	1588
708,041	1583
708,295	1571
708,549	1574
708,804	1627
709,058	1576
709,312	1599
709,566	1604
709,821	1596
710,075	1603
710,329	1621
710,583	1597
710,836	1611
711,09	1601
711,344	1606
711,598	1630
711,851	1612
712,105	1622
712,359	1633
712,612	1628
712,865	1648
713,119	1607
713,372	1624
713,625	1627
713,879	1635
714,132	1635
714,385	1637
714,638	1616
714,891	1588
715,144	1599
715,397	1630
715,649	1587
715,902	1593
716,155	1602
716,408	1590
716,66	1586
716,913	1601
717,165	1573
717,417	1571
717,67	1589
717,922	1561
718,174	1553
718,427	1572
718,679	1556
718,931	1552
719,183	1557
719,435	1552
719,687	1534
719,938	1527
720,19	1533
720,442	1515
720,694	1504
720,945	1524
721,197	1535
721,448	1507
721,7	1509
721,951	1513
722,202	1522
722,454	1503
722,705	1510
722,956	1500
723,207	1499
723,458	1509
723,709	1534
723,96	1529
724,211	1499
724,462	1491
724,713	1492
724,963	1517
725,214	1488
725,465	1518
725,715	1497
725,966	1489
726,216	1505
726,466	1491
726,717	1504
726,967	1503
727,217	1498
727,467	1505
727,717	1504
727,968	1496
728,217	1502
728,467	1514
728,717	1511
728,967	1503
729,217	1536
729,467	1528
729,716	1522
729,966	1502
730,215	1514
730,465	1503
730,714	1528
730,964	1524
731,213	1522
731,462	1515
731,711	1517
731,961	1525
732,21	1515
732,459	1520
732,708	1555
732,957	1548
733,205	1504
733,454	1515
733,703	1521
733,952	1518
734,2	1535
734,449	1508
734,697	1532
734,946	1524
735,194	1503
735,443	1520
735,691	1497
735,939	1496
736,187	1488
736,436	1490
736,684	1479
736,932	1489
737,18	1497
737,428	1475
737,675	1482
737,923	1492
738,171	1483
738,419	1493
738,666	1484
738,914	1506
739,162	1489
739,409	1482
739,656	1496
739,904	1484
740,151	1488
740,398	1497
740,646	1496
740,893	1473
741,14	1471
741,387	1488
741,634	1482
741,881	1463
742,128	1472
742,374	1465
742,621	1473
742,868	1480
743,115	1475
743,361	1489
743,608	1467
743,854	1463
744,101	1467
744,347	1472
744,593	1468
744,84	1470
745,086	1444
745,332	1457
745,578	1454
745,824	1446
746,07	1459
746,316	1457
746,562	1472
746,808	1467
747,054	1463
747,299	1467
747,545	1472
747,791	1476
748,036	1471
748,282	1473
748,527	1461
748,773	1487
749,018	1464
749,263	1473
749,508	1470
749,754	1471
749,999	1494
750,244	1453
750,489	1451
750,734	1460
750,979	1469
751,224	1446
751,468	1466
751,713	1444
751,958	1467
752,202	1455
752,447	1460
752,691	1449
752,936	1459
753,18	1444
753,425	1466
753,669	1437
753,913	1470
754,158	1462
754,402	1438
754,646	1454
754,89	1441
755,134	1440
755,378	1457
755,622	1462
755,865	1457
756,109	1426
756,353	1451
756,597	1458
756,84	1449
757,084	1435
757,327	1463
757,571	1436
757,814	1442
758,057	1423
758,301	1452
758,544	1441
758,787	1422
759,03	1448
759,273	1432
759,516	1443
759,759	1438
760,002	1430
760,245	1426
760,488	1424
760,731	1426
760,973	1426
761,216	1419
761,458	1438
761,701	1444
761,944	1420
762,186	1422
762,428	1405
762,671	1435
762,913	1424
763,155	1437
763,397	1425
763,639	1453
763,881	1433
764,123	1461
764,365	1447
764,607	1460
764,849	1476
765,091	1467
765,333	1482
765,574	1438
765,816	1457
766,057	1423
766,299	1437
766,54	1435
766,782	1435
767,023	1441
767,265	1433
767,506	1427
767,747	1453
767,988	1444
768,229	1431
768,47	1408
768,711	1445
768,952	1435
769,193	1427
769,434	1421
769,675	1423
769,915	1410
770,156	1412
770,397	1412
770,637	1416
770,878	1436
771,118	1427
771,359	1435
771,599	1413
771,839	1423
772,08	1426
772,32	1423
772,56	1431
772,8	1418
773,04	1440
773,28	1430
773,52	1434
773,76	1413
774	1442
774,239	1433
774,479	1421
774,719	1425
774,958	1422
775,198	1424
775,437	1421
775,677	1419
775,916	1418
776,156	1432
776,395	1414
776,634	1418
776,873	1428
777,113	1416
777,352	1405
777,591	1415
777,83	1422
778,069	1395
778,308	1402
778,546	1422
778,785	1417
779,024	1418
779,263	1424
779,501	1402
779,74	1408
779,978	1417
780,217	1431
780,455	1403
780,693	1415
780,932	1414
781,17	1398
781,408	1405
781,646	1415
781,884	1417
782,123	1422
782,361	1401
782,598	1411
782,836	1414
783,074	1414
783,312	1419
783,55	1411
783,787	1405
784,025	1429
784,263	1405
784,5	1406
784,738	1416
784,975	1396
785,212	1422
785,45	1418
785,687	1399
785,924	1397
786,161	1413
786,399	1410
786,636	1413
786,873	1404
787,11	1403
787,346	1416
787,583	1416
787,82	1402
788,057	1414
788,294	1407
788,53	1424
788,767	1418
789,003	1402
789,24	1418
789,476	1402
789,713	1415
789,949	1420
790,185	1414
790,422	1406
790,658	1410
790,894	1412
791,13	1407
791,366	1431
791,602	1413
791,838	1396
792,074	1390
792,31	1420
792,545	1394
792,781	1409
793,017	1415
793,252	1411
793,488	1406
793,724	1421
793,959	1406
794,194	1399
794,43	1419
794,665	1419
794,9	1416
795,136	1403
795,371	1406
795,606	1406
795,841	1411
796,076	1404
796,311	1413
796,546	1411
796,781	1405
797,015	1414
797,25	1411
797,485	1405
797,72	1396
797,954	1414
798,189	1405
798,423	1407
798,658	1444
798,892	1405
799,126	1400
799,361	1422
799,595	1409
799,829	1425
800,063	1415
800,297	1409
800,531	1398
800,765	1420
800,999	1396
801,233	1393
801,467	1406
801,701	1414
801,935	1402
802,168	1421
802,402	1395
802,636	1408
802,869	1397
803,103	1412
803,336	1392
803,569	1401
803,803	1392
804,036	1391
804,269	1396
804,502	1388
804,736	1402
804,969	1392
805,202	1414
805,435	1402
805,668	1385
805,901	1403
806,133	1406
806,366	1407
806,599	1411
806,832	1387
807,064	1332
807,297	1323
807,529	1323
807,762	1329
